#******** SO2 Absorption Cross Sections at 293K ******************

#Version 1.0
#Date: May 2000

#K. Bogumil, J. Orphal, and J. P. Burrows
#University of Bremen - Institute of Environmental Physics
#P. O. Box 33 04 40
#D-28334 Bremen, Germany
#e-mail: Konstanze.Bogumil@iup.physik.uni-bremen.de

#1. column title:	wavelength (vacuum)
#1. column unit:		nm
#2. column title:	absorption cross-section 
#2. column unit:		cm2/molec

#Wavelength range:	239 - 395 nm
#Spectral Resolution:	0.22 nm below 312.5 nm, 0.21 nm above 312.5 nm (FWHM)
#Number of data points in file:	1402

#Experimental:

#Light source:   Xenon lamp
#Cell:	        Multiple reflection quartz cell (White optics)
#	        optical pathlength 985 cm
#Temperature:    293K
#Gas mixture:    SO2, N2
#Condition:      Flow measurement
#Total pressure: 100 mbar
#Spectrometer:   SCIAMACHY PFM Satellite Spectrometer (Eight channel grating spectrometer)

#Note: Spectral Regions are cut and concatenated at 252.7 nm and 312.5 nm.
#      The data are scaled to the absorption cross section measured by Vandaele et al. 
#      J. Geophys. Res. 99, 25599-25605 (1994)

   238.9581  3.754169E-20
   239.0867  3.724393E-20
   239.2152  3.638742E-20
   239.3437  3.685889E-20
   239.4721  3.855661E-20
   239.6005  4.108332E-20
   239.7288  4.281204E-20
   239.8570  4.332424E-20
   239.9852  4.456555E-20
   240.1133  4.841552E-20
   240.2414  5.083203E-20
   240.3694  4.963641E-20
   240.4973  4.661270E-20
   240.6252  4.444887E-20
   240.7530  4.322461E-20
   240.8808  4.317268E-20
   241.0084  4.489730E-20
   241.1361  4.650224E-20
   241.2636  4.647385E-20
   241.3911  4.612130E-20
   241.5185  4.700522E-20
   241.6459  4.813732E-20
   241.7732  4.891613E-20
   241.9005  4.885935E-20
   242.0277  4.832524E-20
   242.1548  4.743771E-20
   242.2818  4.705528E-20
   242.4088  4.840867E-20
   242.5358  5.071908E-20
   242.6626  5.143911E-20
   242.7894  5.095867E-20
   242.9162  5.012507E-20
   243.0429  4.820419E-20
   243.1695  4.599926E-20
   243.2960  4.541833E-20
   243.4225  4.798602E-20
   243.5489  5.217060E-20
   243.6753  5.547475E-20
   243.8016  5.743909E-20
   243.9278  5.858676E-20
   244.0540  5.912996E-20
   244.1801  5.990914E-20
   244.3062  5.996904E-20
   244.4322  6.037600E-20
   244.5581  6.148470E-20
   244.6839  6.278255E-20
   244.8097  6.518896E-20
   244.9355  6.778106E-20
   245.0611  6.758206E-20
   245.1867  6.757147E-20
   245.3123  7.453668E-20
   245.4377  8.318230E-20
   245.5632  8.369225E-20
   245.6885  7.706913E-20
   245.8138  6.817445E-20
   245.9390  6.175729E-20
   246.0642  6.036965E-20
   246.1893  6.353981E-20
   246.3143  7.061200E-20
   246.4393  7.533442E-20
   246.5642  7.411104E-20
   246.6890  7.208456E-20
   246.8138  7.296923E-20
   246.9385  7.677411E-20
   247.0632  8.004465E-20
   247.1878  7.903346E-20
   247.3123  7.590402E-20
   247.4367  7.510454E-20
   247.5611  7.710088E-20
   247.6855  8.188707E-20
   247.8098  8.757958E-20
   247.9340  9.051077E-20
   248.0581  8.942238E-20
   248.1822  8.623441E-20
   248.3062  8.581562E-20
   248.4302  8.780822E-20
   248.5541  8.860745E-20
   248.6779  8.617339E-20
   248.8017  8.372202E-20
   248.9254  8.329588E-20
   249.0490  8.653615E-20
   249.1726  9.187375E-20
   249.2961  9.151548E-20
   249.4196  9.099656E-20
   249.5430  1.019740E-19
   249.6663  1.167476E-19
   249.7896  1.199226E-19
   249.9128  1.121649E-19
   250.0359  1.047790E-19
   250.1590  1.039864E-19
   250.2820  1.110052E-19
   250.4050  1.168778E-19
   250.5279  1.132991E-19
   250.6507  1.068995E-19
   250.7735  1.044042E-19
   250.8962  1.054780E-19
   251.0189  1.127756E-19
   251.1414  1.282099E-19
   251.2640  1.397090E-19
   251.3864  1.373939E-19
   251.5088  1.291476E-19
   251.6312  1.238676E-19
   251.7535  1.224154E-19
   251.8757  1.212379E-19
   251.9978  1.186369E-19
   252.1199  1.187377E-19
   252.2420  1.232294E-19
   252.3639  1.297764E-19
   252.4858  1.312633E-19
   252.6077  1.285648E-19
   252.7295  1.249559E-19
   252.8512  1.206825E-19
   252.9729  1.218301E-19
   253.0945  1.291413E-19
   253.2160  1.350802E-19
   253.3375  1.386828E-19
   253.4590  1.433639E-19
   253.5803  1.488432E-19
   253.7016  1.557708E-19
   253.8229  1.597770E-19
   253.9441  1.585018E-19
   254.0652  1.551258E-19
   254.1863  1.536875E-19
   254.3073  1.538967E-19
   254.4282  1.558493E-19
   254.5491  1.606860E-19
   254.6699  1.629176E-19
   254.7907  1.600098E-19
   254.9114  1.602427E-19
   255.0321  1.616785E-19
   255.1527  1.628641E-19
   255.2732  1.755375E-19
   255.3937  1.974784E-19
   255.5141  2.099003E-19
   255.6345  2.092502E-19
   255.7548  2.093885E-19
   255.8750  2.103797E-19
   255.9952  2.023314E-19
   256.1153  1.881038E-19
   256.2354  1.744690E-19
   256.3554  1.657594E-19
   256.4754  1.603212E-19
   256.5953  1.561145E-19
   256.7151  1.591145E-19
   256.8349  1.773942E-19
   256.9546  1.908871E-19
   257.0743  1.856008E-19
   257.1939  1.840553E-19
   257.3135  2.103523E-19
   257.4330  2.423553E-19
   257.5524  2.488147E-19
   257.6718  2.377813E-19
   257.7911  2.169001E-19
   257.9104  1.976789E-19
   258.0296  1.955918E-19
   258.1488  2.170633E-19
   258.2679  2.414251E-19
   258.3869  2.482269E-19
   258.5059  2.436292E-19
   258.6249  2.330006E-19
   258.7438  2.192886E-19
   258.8626  2.089912E-19
   258.9814  2.139836E-19
   259.1001  2.314751E-19
   259.2188  2.387850E-19
   259.3374  2.362060E-19
   259.4559  2.364837E-19
   259.5745  2.431025E-19
   259.6929  2.492356E-19
   259.8113  2.572155E-19
   259.9296  2.635416E-19
   260.0479  2.592316E-19
   260.1662  2.536029E-19
   260.2844  2.574396E-19
   260.4025  2.594757E-19
   260.5206  2.587982E-19
   260.6386  2.717431E-19
   260.7566  2.849707E-19
   260.8745  2.796222E-19
   260.9924  2.715339E-19
   261.1102  2.809160E-19
   261.2279  3.076090E-19
   261.3457  3.326943E-19
   261.4633  3.381002E-19
   261.5809  3.233758E-19
   261.6985  3.049105E-19
   261.8160  3.001136E-19
   261.9334  3.147284E-19
   262.0509  3.343195E-19
   262.1682  3.393056E-19
   262.2855  3.332560E-19
   262.4028  3.211417E-19
   262.5200  3.060624E-19
   262.6371  3.017113E-19
   262.7542  3.082479E-19
   262.8713  3.108829E-19
   262.9883  3.035058E-19
   263.1052  3.042729E-19
   263.2221  3.086924E-19
   263.3390  2.978683E-19
   263.4558  2.759448E-19
   263.5726  2.717805E-19
   263.6893  3.056004E-19
   263.8059  3.434575E-19
   263.9226  3.386768E-19
   264.0391  3.207818E-19
   264.1556  3.225476E-19
   264.2721  3.450888E-19
   264.3885  3.669862E-19
   264.5049  3.780071E-19
   264.6212  4.022294E-19
   264.7375  4.272002E-19
   264.8538  4.162590E-19
   264.9699  3.911188E-19
   265.0861  3.758091E-19
   265.2022  3.795973E-19
   265.3182  4.073688E-19
   265.4342  4.207221E-19
   265.5502  3.978958E-19
   265.6661  3.636849E-19
   265.7820  3.458597E-19
   265.8978  3.646550E-19
   266.0136  4.090748E-19
   266.1293  4.367865E-19
   266.2450  4.404116E-19
   266.3606  4.442371E-19
   266.4762  4.405548E-19
   266.5918  4.204083E-19
   266.7073  4.043041E-19
   266.8228  4.209438E-19
   266.9382  4.700323E-19
   267.0536  4.860456E-19
   267.1689  4.535756E-19
   267.2842  4.229363E-19
   267.3994  4.063489E-19
   267.5146  4.004362E-19
   267.6298  4.276622E-19
   267.7449  4.603563E-19
   267.8600  4.533452E-19
   267.9750  4.221903E-19
   268.0900  3.977090E-19
   268.2050  4.015532E-19
   268.3199  4.514175E-19
   268.4348  5.186612E-19
   268.5496  5.748579E-19
   268.6644  5.964414E-19
   268.7792  5.635169E-19
   268.8939  5.043764E-19
   269.0085  4.594547E-19
   269.1232  4.464749E-19
   269.2378  4.659863E-19
   269.3523  5.000104E-19
   269.4668  4.976916E-19
   269.5813  4.602479E-19
   269.6957  4.391575E-19
   269.8101  4.521859E-19
   269.9245  4.741928E-19
   270.0388  5.008161E-19
   270.1531  5.327555E-19
   270.2673  5.412074E-19
   270.3815  5.188032E-19
   270.4957  4.964189E-19
   270.6098  4.994263E-19
   270.7239  5.036180E-19
   270.8379  4.842112E-19
   270.9519  4.700298E-19
   271.0659  4.926432E-19
   271.1799  5.311018E-19
   271.2938  5.497738E-19
   271.4076  5.485235E-19
   271.5215  5.564399E-19
   271.6353  5.704694E-19
   271.7490  5.811516E-19
   271.8628  5.928537E-19
   271.9764  5.965224E-19
   272.0901  5.923008E-19
   272.2037  5.923369E-19
   272.3173  6.067525E-19
   272.4309  6.070862E-19
   272.5444  5.934938E-19
   272.6579  5.976631E-19
   272.7713  6.137386E-19
   272.8847  6.117013E-19
   272.9981  6.022221E-19
   273.1115  5.940031E-19
   273.2248  5.987552E-19
   273.3381  6.391938E-19
   273.4513  7.015298E-19
   273.5645  7.260024E-19
   273.6777  7.033255E-19
   273.7909  6.803971E-19
   273.9040  6.594947E-19
   274.0171  6.155269E-19
   274.1301  5.596714E-19
   274.2431  5.247520E-19
   274.3561  5.254506E-19
   274.4691  5.573876E-19
   274.5820  6.056081E-19
   274.6949  6.501661E-19
   274.8078  6.728767E-19
   274.9207  6.723561E-19
   275.0335  6.639678E-19
   275.1462  6.703325E-19
   275.2590  6.733835E-19
   275.3717  6.661546E-19
   275.4844  6.654684E-19
   275.5971  6.476357E-19
   275.7097  6.259289E-19
   275.8223  6.318465E-19
   275.9349  6.271368E-19
   276.0474  6.030901E-19
   276.1600  5.934465E-19
   276.2725  6.109616E-19
   276.3849  6.644746E-19
   276.4974  7.224708E-19
   276.6098  7.360234E-19
   276.7222  7.175344E-19
   276.8345  6.899522E-19
   276.9468  6.628844E-19
   277.0591  6.682728E-19
   277.1714  7.179055E-19
   277.2837  7.404330E-19
   277.3959  7.034824E-19
   277.5081  6.626602E-19
   277.6203  6.459545E-19
   277.7324  6.767545E-19
   277.8445  7.416783E-19
   277.9566  7.901952E-19
   278.0687  8.094089E-19
   278.1807  8.012522E-19
   278.2928  7.619891E-19
   278.4048  7.057327E-19
   278.5167  6.556355E-19
   278.6287  6.145755E-19
   278.7406  6.150288E-19
   278.8525  6.906982E-19
   278.9644  7.974963E-19
   279.0762  8.506570E-19
   279.1881  8.104637E-19
   279.2999  7.294332E-19
   279.4117  6.575670E-19
   279.5234  6.194683E-19
   279.6352  6.732540E-19
   279.7469  8.203924E-19
   279.8586  9.240064E-19
   279.9703  9.143254E-19
   280.0819  8.605733E-19
   280.1935  8.285666E-19
   280.3052  8.046581E-19
   280.4167  7.672455E-19
   280.5283  7.419971E-19
   280.6399  7.310521E-19
   280.7514  7.149105E-19
   280.8629  6.789737E-19
   280.9744  6.601896E-19
   281.0858  6.896372E-19
   281.1973  7.325228E-19
   281.3087  7.603117E-19
   281.4201  8.098734E-19
   281.5315  8.714273E-19
   281.6429  8.901379E-19
   281.7542  8.883285E-19
   281.8656  8.965911E-19
   281.9769  8.764895E-19
   282.0882  8.403347E-19
   282.1994  7.980642E-19
   282.3107  7.415649E-19
   282.4219  6.887891E-19
   282.5331  6.679789E-19
   282.6443  6.613938E-19
   282.7555  6.416632E-19
   282.8667  6.138358E-19
   282.9778  6.143463E-19
   283.0890  7.136391E-19
   283.2001  8.625371E-19
   283.3112  9.285505E-19
   283.4223  9.064103E-19
   283.5333  8.706739E-19
   283.6444  8.383883E-19
   283.7554  8.005498E-19
   283.8664  7.744882E-19
   283.9774  7.411926E-19
   284.0884  6.989445E-19
   284.1994  6.779700E-19
   284.3104  6.913383E-19
   284.4213  7.239278E-19
   284.5322  7.299550E-19
   284.6431  7.258219E-19
   284.7540  7.561325E-19
   284.8649  8.038025E-19
   284.9758  8.267659E-19
   285.0866  8.615944E-19
   285.1975  9.492374E-19
   285.3083  1.016611E-18
   285.4191  1.001006E-18
   285.5299  9.353909E-19
   285.6407  8.693103E-19
   285.7515  8.187661E-19
   285.8622  7.898627E-19
   285.9730  7.520267E-19
   286.0837  7.040291E-19
   286.1944  6.724259E-19
   286.3051  6.447678E-19
   286.4158  6.329947E-19
   286.5265  6.840782E-19
   286.6372  8.061674E-19
   286.7478  9.313325E-19
   286.8585  9.911791E-19
   286.9691  9.906337E-19
   287.0797  9.717126E-19
   287.1903  9.360870E-19
   287.3009  8.787484E-19
   287.4115  8.486196E-19
   287.5221  8.361405E-19
   287.6327  8.049582E-19
   287.7432  7.664822E-19
   287.8538  7.405052E-19
   287.9643  7.156689E-19
   288.0748  6.961227E-19
   288.1853  6.826087E-19
   288.2958  6.628832E-19
   288.4063  6.708468E-19
   288.5168  7.167324E-19
   288.6273  7.986333E-19
   288.7377  9.169928E-19
   288.8482  1.003160E-18
   288.9586  9.992586E-19
   289.0691  9.358579E-19
   289.1795  8.678060E-19
   289.2899  7.836050E-19
   289.4003  6.994078E-19
   289.5107  6.576641E-19
   289.6211  6.537912E-19
   289.7315  6.796150E-19
   289.8419  7.010055E-19
   289.9522  7.212205E-19
   290.0626  7.754421E-19
   290.1729  8.311568E-19
   290.2833  8.227311E-19
   290.3936  7.973282E-19
   290.5039  8.121959E-19
   290.6142  8.749951E-19
   290.7245  9.627315E-19
   290.8348  9.740612E-19
   290.9451  8.882065E-19
   291.0554  8.044202E-19
   291.1657  7.479085E-19
   291.2760  6.923146E-19
   291.3862  6.387218E-19
   291.4965  5.935710E-19
   291.6067  5.760060E-19
   291.7170  6.126154E-19
   291.8272  6.933656E-19
   291.9374  7.574550E-19
   292.0476  7.787919E-19
   292.1579  8.293997E-19
   292.2681  9.084825E-19
   292.3783  9.449013E-19
   292.4885  9.501676E-19
   292.5987  9.287572E-19
   292.7088  8.749814E-19
   292.8190  8.152033E-19
   292.9292  7.491115E-19
   293.0393  6.851279E-19
   293.1495  6.263959E-19
   293.2597  5.703449E-19
   293.3698  5.308328E-19
   293.4800  5.246972E-19
   293.5901  5.498834E-19
   293.7002  6.090750E-19
   293.8103  7.453706E-19
   293.9205  8.869612E-19
   294.0306  9.361144E-19
   294.1407  9.132084E-19
   294.2508  8.793960E-19
   294.3609  8.893808E-19
   294.4710  9.242940E-19
   294.5811  9.340858E-19
   294.6912  8.771021E-19
   294.8013  7.684809E-19
   294.9113  6.722017E-19
   295.0214  6.032345E-19
   295.1315  5.480167E-19
   295.2415  4.960802E-19
   295.3516  4.569417E-19
   295.4616  4.444613E-19
   295.5717  4.580687E-19
   295.6817  5.071310E-19
   295.7918  6.105494E-19
   295.9018  7.533779E-19
   296.0118  8.830248E-19
   296.1219  9.681435E-19
   296.2319  1.018868E-18
   296.3419  9.947743E-19
   296.4519  8.930582E-19
   296.5619  7.729054E-19
   296.6719  6.702068E-19
   296.7819  5.971151E-19
   296.8919  5.544013E-19
   297.0019  5.210111E-19
   297.1119  4.634073E-19
   297.2219  4.000464E-19
   297.3319  3.554485E-19
   297.4419  3.322572E-19
   297.5518  3.435770E-19
   297.6618  3.968223E-19
   297.7718  4.992669E-19
   297.8817  6.849175E-19
   297.9917  8.879375E-19
   298.1016  9.779677E-19
   298.2116  9.586681E-19
   298.3215  9.124512E-19
   298.4315  8.691409E-19
   298.5414  8.008412E-19
   298.6513  7.037527E-19
   298.7613  6.067151E-19
   298.8712  5.256125E-19
   298.9811  4.609528E-19
   299.0910  4.073526E-19
   299.2010  3.623362E-19
   299.3109  3.240408E-19
   299.4208  3.026303E-19
   299.5307  3.002779E-19
   299.6406  3.116899E-19
   299.7505  3.425297E-19
   299.8604  4.489593E-19
   299.9703  6.935524E-19
   300.0801  9.927058E-19
   300.1900  1.076772E-18
   300.2999  9.707774E-19
   300.4098  8.467529E-19
   300.5196  7.330209E-19
   300.6295  6.283859E-19
   300.7393  5.377816E-19
   300.8492  4.630075E-19
   300.9591  4.077448E-19
   301.0689  3.618319E-19
   301.1787  3.188591E-19
   301.2886  2.804851E-19
   301.3984  2.517075E-19
   301.5082  2.347938E-19
   301.6181  2.409556E-19
   301.7279  2.888909E-19
   301.8377  3.846894E-19
   301.9475  5.462533E-19
   302.0573  7.375015E-19
   302.1671  8.606629E-19
   302.2769  8.788418E-19
   302.3867  8.260461E-19
   302.4965  7.416185E-19
   302.6063  6.373856E-19
   302.7160  5.377641E-19
   302.8258  4.570214E-19
   302.9356  3.928336E-19
   303.0453  3.377577E-19
   303.1551  2.922072E-19
   303.2648  2.582665E-19
   303.3746  2.343231E-19
   303.4843  2.206584E-19
   303.5940  2.199001E-19
   303.7038  2.300978E-19
   303.8135  2.495071E-19
   303.9232  2.901748E-19
   304.0329  3.862547E-19
   304.1426  5.551734E-19
   304.2523  7.520852E-19
   304.3620  7.823311E-19
   304.4717  6.993617E-19
   304.5814  6.157348E-19
   304.6910  5.284854E-19
   304.8007  4.413655E-19
   304.9104  3.718267E-19
   305.0200  3.203210E-19
   305.1296  2.791452E-19
   305.2393  2.434076E-19
   305.3489  2.130497E-19
   305.4585  1.893055E-19
   305.5681  1.770568E-19
   305.6777  1.789708E-19
   305.7873  1.893989E-19
   305.8969  2.163783E-19
   306.0065  2.744031E-19
   306.1161  3.485570E-19
   306.2257  4.244754E-19
   306.3352  5.057288E-19
   306.4448  5.887467E-19
   306.5543  6.281966E-19
   306.6638  5.801342E-19
   306.7734  4.859073E-19
   306.8829  4.004312E-19
   306.9924  3.380877E-19
   307.1019  2.946753E-19
   307.2114  2.649886E-19
   307.3208  2.340006E-19
   307.4303  2.071432E-19
   307.5398  1.923117E-19
   307.6492  1.879357E-19
   307.7586  1.886169E-19
   307.8681  1.879145E-19
   307.9775  1.859905E-19
   308.0869  1.981160E-19
   308.1963  2.360703E-19
   308.3056  2.641916E-19
   308.4150  3.087223E-19
   308.5244  4.032954E-19
   308.6337  4.951051E-19
   308.7431  5.042643E-19
   308.8524  4.480129E-19
   308.9617  3.815051E-19
   309.0710  3.180720E-19
   309.1803  2.681056E-19
   309.2895  2.307753E-19
   309.3988  2.003563E-19
   309.5081  1.765026E-19
   309.6173  1.649412E-19
   309.7265  1.665688E-19
   309.8357  1.699971E-19
   309.9449  1.691491E-19
   310.0541  1.716895E-19
   310.1632  1.838511E-19
   310.2724  1.947164E-19
   310.3815  1.985606E-19
   310.4906  2.126424E-19
   310.5997  2.619314E-19
   310.7088  3.197295E-19
   310.8179  3.361426E-19
   310.9270  2.993402E-19
   311.0360  2.659662E-19
   311.1450  2.495556E-19
   311.2540  2.293618E-19
   311.3630  2.072764E-19
   311.4720  1.797055E-19
   311.5809  1.521881E-19
   311.6899  1.331139E-19
   311.7988  1.231006E-19
   311.9077  1.214195E-19
   312.0166  1.285237E-19
   312.1254  1.347327E-19
   312.2343  1.330279E-19
   312.3431  1.299446E-19
   312.4519  1.313866E-19
   312.5180  1.370403E-19
   312.6326  1.471845E-19
   312.7472  1.533923E-19
   312.8619  1.694131E-19
   312.9764  2.014136E-19
   313.0910  2.309347E-19
   313.2055  2.332136E-19
   313.3201  2.097397E-19
   313.4346  1.802460E-19
   313.5491  1.513849E-19
   313.6635  1.293294E-19
   313.7780  1.196649E-19
   313.8924  1.166605E-19
   314.0068  1.073111E-19
   314.1211  9.489161E-20
   314.2355  8.635682E-20
   314.3498  8.440880E-20
   314.4641  8.999160E-20
   314.5784  9.997654E-20
   314.6927  1.080350E-19
   314.8069  1.123071E-19
   314.9212  1.102988E-19
   315.0354  1.078785E-19
   315.1496  1.157514E-19
   315.2637  1.299234E-19
   315.3779  1.327041E-19
   315.4920  1.251601E-19
   315.6061  1.227431E-19
   315.7202  1.279521E-19
   315.8342  1.253270E-19
   315.9482  1.100270E-19
   316.0622  9.357670E-20
   316.1762  8.190936E-20
   316.2902  7.455262E-20
   316.4041  7.110775E-20
   316.5181  7.226638E-20
   316.6320  7.867706E-20
   316.7458  8.416385E-20
   316.8597  8.493021E-20
   316.9735  8.440407E-20
   317.0873  8.616492E-20
   317.2011  9.037067E-20
   317.3149  9.004490E-20
   317.4286  8.371355E-20
   317.5424  7.716153E-20
   317.6561  7.450256E-20
   317.7697  7.475075E-20
   317.8834  7.638595E-20
   317.9970  8.194921E-20
   318.1106  8.843535E-20
   318.2242  8.546930E-20
   318.3378  7.652481E-20
   318.4513  6.819338E-20
   318.5649  5.967241E-20
   318.6784  5.114871E-20
   318.7918  4.432023E-20
   318.9053  4.046627E-20
   319.0187  4.031659E-20
   319.1321  4.151257E-20
   319.2455  4.253546E-20
   319.3589  4.537450E-20
   319.4722  5.081260E-20
   319.5855  5.627311E-20
   319.6988  5.786050E-20
   319.8121  5.754382E-20
   319.9253  5.492308E-20
   320.0386  4.939482E-20
   320.1518  4.360841E-20
   320.2650  3.853705E-20
   320.3781  3.553650E-20
   320.4912  3.439855E-20
   320.6044  3.362285E-20
   320.7174  3.363381E-20
   320.8305  3.490725E-20
   320.9436  3.782561E-20
   321.0566  4.033128E-20
   321.1696  3.766696E-20
   321.2825  3.237668E-20
   321.3955  2.805736E-20
   321.5084  2.456877E-20
   321.6213  2.211715E-20
   321.7342  2.106064E-20
   321.8471  2.145116E-20
   321.9599  2.270842E-20
